File: csv/daily/TGA_1431522171544.csv
uri:/instrument/1.0/TGA/chartdata;type=quote;range=1d/csv
ticker:tga
Company-Name:Transglobe Energy Corp
Exchange-Name:NMS
unit:MIN
timezone:EDT
currency:USD
gmtoffset:-14400
previous_close:4.0700
Timestamp:1431437400,1431460800
labels:1431439200,1431442800,1431446400,1431450000,1431453600,1431457200,1431460800
values:Timestamp,close,high,low,open,volume
close:4.0650,4.2300
high:4.0650,4.2300
low:4.0600,4.2300
open:4.0650,4.2300
volume:0,7400
1431437663,4.1400,4.1400,4.1400,4.1400,7400
1431437801,4.1400,4.1400,4.1400,4.1400,500
1431437931,4.1600,4.1600,4.1560,4.1560,3400
1431437940,4.1500,4.1600,4.1500,4.1600,400
1431438170,4.1800,4.1800,4.1700,4.1700,800
1431438198,4.1900,4.1900,4.1900,4.1900,100
1431438286,4.1832,4.1832,4.1800,4.1801,2100
1431438316,4.1800,4.1800,4.1700,4.1800,1400
1431438364,4.1850,4.1850,4.1800,4.1800,600
1431438561,4.1800,4.1800,4.1800,4.1800,2200
1431438638,4.1800,4.1800,4.1600,4.1800,2200
1431438691,4.1550,4.1700,4.1500,4.1700,700
1431439164,4.1600,4.1600,4.1600,4.1600,100
1431439214,4.1800,4.1800,4.1600,4.1601,2300
1431439594,4.1800,4.1800,4.1800,4.1800,100
1431439668,4.1800,4.1800,4.1750,4.1800,2600
1431439717,4.1800,4.1800,4.1800,4.1800,600
1431439764,4.1900,4.1900,4.1900,4.1900,200
1431439849,4.1850,4.1850,4.1850,4.1850,100
1431440014,4.1900,4.1900,4.1900,4.1900,100
1431440172,4.2000,4.2000,4.1900,4.1900,200
1431440285,4.1950,4.1950,4.1950,4.1950,100
1431440344,4.2000,4.2000,4.2000,4.2000,100
1431440458,4.1900,4.2000,4.1900,4.2000,200
1431440460,4.1950,4.1950,4.1950,4.1950,200
1431440870,4.2000,4.2000,4.2000,4.2000,100
1431440951,4.2000,4.2000,4.2000,4.2000,200
1431441232,4.1950,4.1950,4.1950,4.1950,100
1431441418,4.1910,4.2000,4.1910,4.2000,600
1431441466,4.1850,4.1900,4.1800,4.1900,2900
1431441494,4.1900,4.1900,4.1900,4.1900,100
1431441696,4.1900,4.1900,4.1900,4.1900,300
1431441869,4.1801,4.1801,4.1800,4.1800,300
1431442003,4.1900,4.1900,4.1900,4.1900,200
1431442206,4.1900,4.1900,4.1900,4.1900,100
1431442296,4.1900,4.1900,4.1900,4.1900,100
1431442392,4.1800,4.1800,4.1800,4.1800,100
1431442448,4.1900,4.1900,4.1800,4.1800,2200
1431442523,4.1800,4.1800,4.1800,4.1800,500
1431442576,4.1900,4.1900,4.1800,4.1800,400
1431442659,4.1900,4.1900,4.1900,4.1900,100
1431442718,4.2000,4.2000,4.1959,4.1959,200
1431442752,4.1820,4.1820,4.1820,4.1820,200
1431442954,4.1950,4.2000,4.1900,4.1900,1200
1431443047,4.2000,4.2000,4.2000,4.2000,100
1431443152,4.2000,4.2050,4.1950,4.2000,3900
1431443206,4.2050,4.2100,4.2050,4.2100,500
1431443339,4.2100,4.2200,4.2100,4.2200,600
1431443378,4.2000,4.2200,4.2000,4.2200,900
1431443629,4.1950,4.2050,4.1950,4.2050,600
1431444329,4.2000,4.2000,4.2000,4.2000,200
1431444371,4.2000,4.2000,4.2000,4.2000,100
1431444439,4.2100,4.2100,4.2000,4.2000,4700
1431444503,4.2100,4.2100,4.2100,4.2100,100
1431444576,4.2100,4.2100,4.2100,4.2100,100
1431444684,4.2100,4.2100,4.2100,4.2100,100
1431444894,4.2000,4.2100,4.2000,4.2100,400
1431444933,4.2300,4.2300,4.2100,4.2100,200
1431445001,4.2300,4.2300,4.2250,4.2250,200
1431445068,4.2300,4.2300,4.2200,4.2200,5000
1431445196,4.2250,4.2250,4.2200,4.2200,3900
1431445240,4.2100,4.2200,4.2100,4.2200,3700
1431445364,4.2200,4.2200,4.2200,4.2200,100
1431445499,4.2200,4.2200,4.2100,4.2100,900
1431445500,4.2150,4.2150,4.2150,4.2150,200
1431445650,4.2200,4.2200,4.2200,4.2200,1400
1431445810,4.2300,4.2300,4.2300,4.2300,100
1431445885,4.2300,4.2300,4.2300,4.2300,100
1431445960,4.2300,4.2300,4.2300,4.2300,100
1431446035,4.2300,4.2300,4.2200,4.2200,200
1431446110,4.2300,4.2300,4.2300,4.2300,100
1431446194,4.2200,4.2250,4.2200,4.2250,2000
1431446334,4.2150,4.2200,4.2150,4.2200,3300
1431446519,4.2000,4.2100,4.1800,4.2100,2700
1431446542,4.1900,4.1900,4.1900,4.1900,700
1431446785,4.2000,4.2000,4.2000,4.2000,100
1431446937,4.1800,4.1900,4.1800,4.1900,1000
1431446967,4.1800,4.1800,4.1750,4.1750,300
1431447053,4.1800,4.1800,4.1800,4.1800,1900
1431447353,4.1900,4.1900,4.1900,4.1900,100
1431447374,4.1950,4.1950,4.1950,4.1950,100
1431447446,4.2100,4.2100,4.2100,4.2100,100
1431447610,4.2150,4.2150,4.2150,4.2150,200
1431447675,4.2000,4.2100,4.2000,4.2100,300
1431447949,4.2100,4.2100,4.2100,4.2100,100
1431448003,4.2100,4.2100,4.2100,4.2100,100
1431448136,4.2000,4.2100,4.2000,4.2100,300
1431448178,4.2000,4.2000,4.1900,4.1900,900
1431448299,4.2000,4.2000,4.2000,4.2000,600
1431448430,4.2100,4.2100,4.1966,4.1966,4400
1431448490,4.2100,4.2100,4.2100,4.2100,100
1431448732,4.2100,4.2100,4.2100,4.2100,100
1431448899,4.2100,4.2100,4.2100,4.2100,100
1431449024,4.1800,4.2050,4.1800,4.2000,1100
1431449127,4.1900,4.1900,4.1800,4.1800,800
1431449199,4.2000,4.2000,4.1900,4.1900,200
1431449512,4.1900,4.1900,4.1900,4.1900,600
1431449799,4.2000,4.2000,4.2000,4.2000,100
1431449855,4.2000,4.2000,4.2000,4.2000,100
1431449995,4.2000,4.2000,4.2000,4.2000,300
1431450052,4.1800,4.1900,4.1800,4.1900,500
1431450264,4.1600,4.1650,4.1600,4.1600,800
1431450337,4.1610,4.1610,4.1610,4.1610,2000
1431450477,4.1650,4.1690,4.1650,4.1690,200
1431450515,4.1700,4.1700,4.1700,4.1700,1100
1431450600,4.1800,4.1800,4.1800,4.1800,400
1431450700,4.1900,4.1900,4.1900,4.1900,100
1431450764,4.1900,4.1900,4.1900,4.1900,200
1431450793,4.1810,4.1810,4.1810,4.1810,100
1431450992,4.1900,4.1900,4.1800,4.1800,1300
1431451022,4.1800,4.1800,4.1800,4.1800,100
1431451095,4.1800,4.1800,4.1800,4.1800,200
1431451177,4.1900,4.1900,4.1900,4.1900,100
1431451342,4.1700,4.1700,4.1700,4.1700,700
1431451521,4.1700,4.1700,4.1700,4.1700,100
1431451796,4.1800,4.1800,4.1800,4.1800,100
1431451919,4.1700,4.1750,4.1700,4.1700,2100
1431451962,4.1700,4.1700,4.1700,4.1700,100
1431451997,4.1700,4.1700,4.1700,4.1700,300
1431452261,4.1650,4.1650,4.1650,4.1650,200
1431452381,4.1600,4.1600,4.1600,4.1600,100
1431452425,4.1600,4.1600,4.1600,4.1600,400
1431452466,4.1500,4.1500,4.1500,4.1500,100
1431452744,4.1600,4.1600,4.1600,4.1600,100
1431452861,4.1700,4.1700,4.1700,4.1700,100
1431452982,4.1700,4.1700,4.1700,4.1700,100
1431453288,4.1700,4.1700,4.1700,4.1700,1700
1431453356,4.1500,4.1600,4.1500,4.1600,200
1431453360,4.1600,4.1600,4.1600,4.1600,100
1431453427,4.1550,4.1550,4.1550,4.1550,100
1431453521,4.1500,4.1500,4.1500,4.1500,200
1431453616,4.1400,4.1450,4.1400,4.1410,1200
1431453737,4.1400,4.1400,4.1400,4.1400,600
1431453826,4.1400,4.1400,4.1400,4.1400,100
1431453875,4.1400,4.1400,4.1400,4.1400,100
1431453912,4.1300,4.1350,4.1300,4.1300,300
1431454012,4.1250,4.1250,4.1250,4.1250,100
1431454250,4.1200,4.1250,4.1200,4.1200,500
1431454377,4.1100,4.1100,4.1100,4.1100,100
1431454435,4.1100,4.1100,4.1100,4.1100,700
1431454460,4.1100,4.1100,4.1100,4.1100,200
1431454527,4.1000,4.1000,4.1000,4.1000,100
1431454617,4.1100,4.1150,4.1100,4.1100,2900
1431454640,4.1150,4.1150,4.1150,4.1150,100
1431454739,4.1100,4.1100,4.1100,4.1100,100
1431454778,4.1100,4.1100,4.1100,4.1100,100
1431454811,4.1100,4.1100,4.1100,4.1100,200
1431454880,4.1100,4.1100,4.1100,4.1100,200
1431455025,4.1200,4.1200,4.1150,4.1150,200
1431455159,4.1100,4.1200,4.1100,4.1200,300
1431455219,4.1150,4.1150,4.1100,4.1150,500
1431455398,4.1175,4.1175,4.1175,4.1175,3000
1431455430,4.1100,4.1100,4.1100,4.1100,3000
1431455464,4.1100,4.1150,4.1100,4.1150,700
1431455627,4.1100,4.1200,4.1100,4.1200,300
1431455732,4.1200,4.1200,4.1200,4.1200,400
1431455853,4.1100,4.1150,4.1100,4.1150,800
1431455962,4.1100,4.1150,4.1100,4.1150,200
1431456015,4.1200,4.1200,4.1190,4.1200,1100
1431456135,4.1200,4.1200,4.1200,4.1200,100
1431456230,4.1200,4.1200,4.1200,4.1200,1400
1431456255,4.1200,4.1200,4.1200,4.1200,100
1431456358,4.1200,4.1200,4.1200,4.1200,100
1431456375,4.1200,4.1200,4.1200,4.1200,100
1431456448,4.1190,4.1200,4.1190,4.1200,1000
1431456496,4.1200,4.1200,4.1200,4.1200,100
1431456582,4.1200,4.1200,4.1200,4.1200,200
1431456652,4.1100,4.1200,4.1100,4.1200,300
1431456777,4.1100,4.1200,4.1100,4.1200,1500
1431456780,4.1100,4.1150,4.1100,4.1150,500
1431456944,4.1099,4.1100,4.1050,4.1050,400
1431457042,4.1050,4.1050,4.1050,4.1050,300
1431457093,4.1000,4.1000,4.1000,4.1000,1100
1431457246,4.1100,4.1100,4.1100,4.1100,100
1431457274,4.1000,4.1000,4.1000,4.1000,100
1431457496,4.1050,4.1050,4.1050,4.1050,100
1431457543,4.1100,4.1100,4.1100,4.1100,100
1431457595,4.1100,4.1100,4.1100,4.1100,100
1431457669,4.1000,4.1050,4.1000,4.1050,800
1431457909,4.1000,4.1000,4.1000,4.1000,500
1431457932,4.0900,4.0900,4.0900,4.0900,700
1431458098,4.0975,4.1000,4.0975,4.1000,3200
1431458158,4.1000,4.1000,4.0900,4.1000,2500
1431458189,4.1000,4.1000,4.1000,4.1000,200
1431458254,4.0950,4.1000,4.0950,4.1000,300
1431458312,4.1000,4.1000,4.1000,4.1000,300
1431458447,4.1100,4.1100,4.1035,4.1035,600
1431458491,4.1100,4.1100,4.1100,4.1100,200
1431458673,4.1100,4.1100,4.1100,4.1100,100
1431458883,4.1100,4.1100,4.1100,4.1100,100
1431458963,4.1000,4.1000,4.1000,4.1000,1300
1431459024,4.1000,4.1000,4.1000,4.1000,300
1431459099,4.0950,4.1000,4.0900,4.1000,700
1431459177,4.0984,4.0984,4.0984,4.0984,100
1431459207,4.1000,4.1000,4.1000,4.1000,1000
1431459249,4.1084,4.1084,4.1050,4.1050,900
1431459338,4.1100,4.1100,4.1100,4.1100,100
1431459391,4.0984,4.1000,4.0984,4.1000,600
1431459472,4.1000,4.1000,4.0900,4.0900,300
1431459512,4.1000,4.1000,4.0984,4.0984,1300
1431459595,4.1000,4.1000,4.0984,4.0984,200
1431459658,4.0900,4.1000,4.0900,4.1000,800
1431459711,4.0850,4.0900,4.0850,4.0900,1000
1431459760,4.0900,4.0900,4.0884,4.0884,1900
1431459819,4.0984,4.0984,4.0900,4.0900,500
1431459885,4.0800,4.0950,4.0700,4.0900,4100
1431459926,4.0800,4.0800,4.0800,4.0800,400
1431459997,4.0800,4.0800,4.0800,4.0800,400
1431460044,4.0800,4.0800,4.0800,4.0800,100
1431460125,4.0784,4.0784,4.0784,4.0784,100
1431460170,4.0784,4.0784,4.0784,4.0784,200
1431460212,4.0800,4.0800,4.0800,4.0800,200
1431460421,4.0750,4.0750,4.0750,4.0750,800
1431460444,4.0700,4.0800,4.0700,4.0800,1500
1431460550,4.0800,4.0800,4.0800,4.0800,200
1431460590,4.0800,4.0800,4.0800,4.0800,100
1431460670,4.0800,4.0800,4.0800,4.0800,1800
1431460682,4.0700,4.0700,4.0700,4.0700,1200
1431460740,4.0700,4.0750,4.0600,4.0700,4700
1431460780,4.0650,4.0650,4.0650,4.0650,0
1431460800,4.0700,4.0700,4.0700,4.0700,1100